ID OMM station;Température (°C)
7005;9.900000
7005;6.400000
7005;6.000000
7005;6.000000
7005;-0.100000
7005;1.600000
7005;6.900000
7005;9.300000
7005;6.600000
7005;7.200000
7005;5.000000
7005;3.300000
7005;10.600000
7005;6.600000
7005;11.800000
7005;8.800000
7005;12.200000
7005;11.000000
7005;7.200000
7005;7.200000
7005;7.700000
7005;10.200000
7005;5.400000
7005;7.100000
7005;6.200000
7005;8.500000
7005;7.100000
7005;11.100000
7005;12.300000
7005;12.300000
7005;10.700000
7005;-0.600000
7005;6.000000
7005;3.200000
7005;7.200000
7005;5.000000
7005;3.400000
7005;13.400000
7005;12.000000
7005;3.200000
7005;7.700000
7005;6.100000
7005;8.400000
7005;10.300000
7005;12.000000
7005;7.700000
7005;9.700000
7005;12.200000
7005;6.100000
7005;7.600000
7005;12.600000
7005;9.600000
7005;6.800000
7005;3.400000
7005;9.100000
7005;6.200000
7005;6.900000
7005;8.000000
7005;7.900000
7005;8.200000
7005;6.200000
7005;7.400000
7005;-0.100000
7005;3.000000
7005;6.500000
7005;2.200000
7005;8.500000
7005;12.800000
7005;9.100000
7005;5.300000
7005;11.800000
7005;11.600000
7005;0.600000
7005;2.900000
7005;6.200000
7005;12.600000
7005;3.700000
7005;11.300000
7005;5.700000
7005;10.100000
7005;8.400000
7005;12.200000
7005;6.600000
7005;5.100000
7005;7.800000
7005;4.200000
7005;10.800000
7005;10.300000
7005;10.700000
7005;11.100000
7005;13.200000
7005;4.900000
7005;9.000000
7005;10.800000
7005;8.300000
7005;11.600000
7005;6.100000
7005;9.500000
7005;10.700000
7005;7.900000
7005;6.000000
7005;8.700000
7005;9.800000
7005;8.900000
7005;9.500000
7005;7.700000
7005;5.900000
7005;9.100000
7005;10.800000
7005;11.900000
7005;7.800000
7005;3.100000
7005;6.600000
7005;7.500000
7005;6.200000
7005;6.200000
7005;8.300000
7005;1.200000
7005;11.400000
7005;6.600000
7015;7.300000
7015;6.700000
7015;8.400000
7015;7.100000
7015;12.800000
7015;5.700000
7015;6.000000
7015;1.800000
7015;9.800000
7015;8.400000
7015;11.900000
7015;6.900000
7015;6.900000
7015;9.800000
7015;2.400000
7015;7.800000
7015;5.600000
7015;9.400000
7015;2.200000
7015;6.200000
7015;6.600000
7015;8.300000
7015;9.500000
7015;11.500000
7015;2.800000
7015;5.400000
7015;4.600000
7015;5.700000
7015;2.900000
7015;2.900000
7015;9.100000
7015;1.700000
7015;11.100000
7015;12.000000
7015;10.300000
7015;11.700000
7015;11.400000
7015;12.100000
7015;2.000000
7015;10.900000
7015;8.600000
7015;1.900000
7015;7.500000
7015;9.400000
7015;11.600000
7015;12.000000
7015;9.400000
7015;4.700000
7015;6.400000
7015;8.200000
7015;7.700000
7015;5.600000
7015;1.500000
7015;4.900000
7015;1.800000
7015;5.400000
7015;10.900000
7015;10.400000
7015;8.800000
7015;8.900000
7015;8.800000
7015;5.900000
7015;9.500000
7015;0.600000
7015;8.700000
7015;7.400000
7015;4.200000
7015;4.400000
7015;11.200000
7015;10.000000
7015;6.900000
7015;5.000000
7015;5.600000
7015;5.600000
7015;2.300000
7015;7.700000
7015;8.000000
7015;10.000000
7015;1.400000
7015;10.000000
7015;10.800000
7015;6.100000
7015;3.600000
7015;0.700000
7015;11.400000
7015;4.600000
7015;7.800000
7015;10.800000
7015;9.100000
7015;6.200000
7015;6.600000
7015;11.800000
7015;6.300000
7015;2.900000
7015;6.300000
7015;5.900000
7015;7.100000
7015;9.300000
7015;6.500000
7015;5.900000
7015;4.900000
7015;5.100000
7015;6.400000
7015;12.500000
7015;11.200000
7015;7.000000
7015;5.100000
7015;10.400000
7015;8.900000
7015;7.200000
7015;6.700000
7015;5.900000
7015;6.900000
7015;6.000000
7015;2.100000
7015;7.900000
7015;7.000000
7015;9.300000
7015;4.700000
7015;11.700000
7020;11.700000
7020;9.900000
7020;10.400000
7020;10.100000
7020;11.100000
7020;9.600000
7020;10.300000
7020;10.200000
7020;11.000000
7020;10.600000
7020;9.300000
7020;10.600000
7020;10.800000
7020;9.800000
7020;7.300000
7020;12.700000
7020;10.300000
7020;10.200000
7020;9.300000
7020;9.600000
7020;10.600000
7020;9.400000
7020;11.200000
7020;11.600000
7020;8.900000
7020;0.000000
7020;8.600000
7020;11.500000
7020;8.700000
7020;12.800000
7020;12.200000
7020;11.900000
7020;8.700000
7020;9.500000
7020;10.100000
7020;11.600000
7020;11.400000
7020;10.800000
7020;11.200000
7020;9.100000
7020;9.400000
7020;9.700000
7020;8.700000
7020;10.600000
7020;11.300000
7020;6.900000
7020;8.000000
7020;9.800000
7020;10.000000
7020;9.900000
7020;9.500000
7020;8.300000
7020;8.100000
7020;9.200000
7020;11.800000
7020;10.600000
7020;11.800000
7020;9.200000
7020;8.700000
7020;11.400000
7020;9.000000
7020;7.400000
7020;9.100000
7020;12.100000
7020;12.200000
7020;6.700000
7020;10.900000
7020;7.400000
7020;7.000000
7020;10.800000
7020;12.000000
7020;9.300000
7020;10.700000
7020;12.600000
7020;12.600000
7020;9.200000
7020;9.400000
7020;8.500000
7020;8.100000
7020;10.700000
7020;8.400000
7020;10.700000
7020;7.400000
7020;8.500000
7020;9.700000
7020;11.000000
7020;11.000000
7020;8.800000
7020;11.000000
7020;11.200000
7020;10.600000
7020;9.000000
7020;10.400000
7020;8.800000
7020;9.200000
7020;10.800000
7020;11.200000
7020;10.800000
7020;7.400000
7020;11.300000
7020;10.600000
7020;10.000000
7020;9.500000
7020;8.300000
7020;11.300000
7020;8.500000
7020;11.100000
7020;7.000000
7020;5.600000
7020;10.300000
7020;10.800000
7020;0.000000
7020;10.700000
7020;9.400000
7020;9.900000
7020;11.600000
7020;9.400000
7020;8.400000
7020;8.800000
7020;13.000000
7027;7.900000
7027;12.800000
7027;4.700000
7027;2.600000
7027;5.100000
7027;6.100000
7027;7.000000
7027;6.500000
7027;11.300000
7027;11.500000
7027;12.300000
7027;8.700000
7027;6.400000
7027;9.100000
7027;5.500000
7027;10.000000
7027;4.000000
7027;2.900000
7027;6.600000
7027;6.200000
7027;7.800000
7027;12.600000
7027;3.100000
7027;-0.200000
7027;12.400000
7027;11.100000
7027;9.600000
7027;7.300000
7027;9.900000
7027;13.200000
7027;7.900000
7027;10.000000
7027;7.300000
7027;3.900000
7027;12.600000
7027;13.900000
7027;12.800000
7027;9.900000
7027;6.500000
7027;7.000000
7027;12.500000
7027;8.600000
7027;8.700000
7027;4.800000
7027;10.700000
7027;11.600000
7027;6.200000
7027;10.100000
7027;12.300000
7027;8.200000
7027;6.900000
7027;12.200000
7027;8.500000
7027;12.500000
7027;6.600000
7027;8.400000
7027;4.400000
7027;8.600000
7027;9.400000
7027;6.900000
7027;13.300000
7027;4.000000
7027;6.000000
7027;5.900000
7027;13.200000
7027;9.000000
7027;2.900000
7027;10.100000
7027;7.900000
7027;4.300000
7027;11.800000
7027;4.500000
7027;6.900000
7027;10.700000
7027;4.400000
7027;12.300000
7027;7.800000
7027;6.000000
7027;5.700000
7027;10.700000
7027;10.200000
7027;10.400000
7027;7.900000
7027;12.500000
7027;5.800000
7027;11.900000
7027;7.100000
7027;7.100000
7027;9.400000
7027;12.800000
7027;6.100000
7027;6.800000
7027;11.100000
7027;7.200000
7027;5.800000
7027;9.800000
7027;9.700000
7027;2.500000
7027;2.200000
7027;9.000000
7027;6.100000
7027;10.300000
7027;10.000000
7027;12.600000
7027;10.500000
7027;11.700000
7027;8.200000
7027;12.700000
7027;6.500000
7027;1.700000
7027;8.600000
7027;4.100000
7027;12.900000
7027;3.700000
7027;8.000000
7027;8.400000
7027;12.600000
7027;12.600000
7027;7.800000
7027;6.900000
7037;11.600000
7037;8.900000
7037;9.500000
7037;5.900000
7037;5.700000
7037;12.200000
7037;-0.900000
7037;4.400000
7037;6.000000
7037;10.400000
7037;11.800000
7037;11.900000
7037;10.800000
7037;6.100000
7037;6.800000
7037;6.900000
7037;10.000000
7037;9.700000
7037;2.100000
7037;6.200000
7037;2.800000
7037;3.400000
7037;4.000000
7037;9.800000
7037;9.800000
7037;1.100000
7037;4.600000
7037;9.900000
7037;11.700000
7037;4.300000
7037;9.500000
7037;9.500000
7037;3.100000
7037;-1.200000
7037;6.000000
7037;11.400000
7037;5.400000
7037;6.500000
7037;4.200000
7037;6.900000
7037;4.600000
7037;10.900000
7037;11.600000
7037;6.900000
7037;11.900000
7037;5.000000
7037;8.100000
7037;7.100000
7037;5.600000
7037;8.200000
7037;11.200000
7037;4.900000
7037;10.300000
7037;6.900000
7037;8.400000
7037;11.000000
7037;11.000000
7037;1.000000
7037;7.200000
7037;10.800000
7037;9.300000
7037;5.700000
7037;8.600000
7037;12.300000
7037;0.100000
7037;9.700000
7037;7.000000
7037;6.700000
7037;9.000000
7037;8.800000
7037;5.300000
7037;5.600000
7037;7.800000
7037;3.900000
7037;8.700000
7037;8.700000
7037;7.400000
7037;10.300000
7037;12.000000
7037;6.400000
7037;10.100000
7037;11.000000
7037;2.900000
7037;5.400000
7037;7.700000
7037;6.000000
7037;2.900000
7037;5.000000
7037;8.500000
7037;12.500000
7037;5.800000
7037;6.400000
7037;4.900000
7037;2.800000
7037;4.400000
7037;10.300000
7037;1.800000
7037;5.000000
7037;5.000000
7037;7.700000
7037;10.100000
7037;-0.400000
7037;6.500000
7037;6.700000
7037;0.700000
7037;0.200000
7037;5.500000
7037;7.600000
7037;11.200000
7037;7.600000
7037;7.400000
7037;7.400000
7037;6.000000
7037;5.200000
7037;3.800000
7037;11.100000
7037;8.600000
7037;7.900000
7037;9.200000
7037;5.000000
7072;11.400000
7072;2.500000
7072;7.000000
7072;0.400000
7072;7.700000
7072;8.000000
7072;10.500000
7072;5.400000
7072;-2.900000
7072;7.100000
7072;-0.200000
7072;7.600000
7072;8.700000
7072;9.000000
7072;7.900000
7072;7.000000
7072;7.000000
7072;5.500000
7072;6.900000
7072;7.100000
7072;9.100000
7072;12.700000
7072;7.700000
7072;-0.100000
7072;11.500000
7072;7.500000
7072;11.300000
7072;7.200000
7072;6.000000
7072;7.100000
7072;10.300000
7072;3.600000
7072;7.600000
7072;9.100000
7072;8.600000
7072;0.200000
7072;1.200000
7072;11.500000
7072;7.700000
7072;-0.600000
7072;4.900000
7072;4.800000
7072;6.800000
7072;8.900000
7072;2.200000
7072;8.000000
7072;7.900000
7072;-2.500000
7072;-1.900000
7072;1.400000
7072;7.600000
7072;7.400000
7072;1.700000
7072;5.000000
7072;7.800000
7072;6.500000
7072;9.300000
7072;11.100000
7072;12.500000
7072;3.500000
7072;3.100000
7072;-1.800000
7072;3.400000
7072;6.500000
7072;10.100000
7072;10.200000
7072;9.200000
7072;9.200000
7072;0.800000
7072;0.900000
7072;0.500000
7072;10.800000
7072;9.800000
7072;8.000000
7072;0.300000
7072;12.000000
7072;-0.500000
7072;1.800000
7072;4.300000
7072;11.800000
7072;8.100000
7072;4.300000
7072;5.100000
7072;4.200000
7072;2.800000
7072;9.400000
7072;7.200000
7072;11.400000
7072;8.100000
7072;11.600000
7072;6.200000
7072;11.000000
7072;11.200000
7072;-1.400000
7072;2.900000
7072;12.200000
7072;11.600000
7072;6.600000
7072;9.000000
7072;12.600000
7072;10.900000
7072;7.400000
7072;1.500000
7072;6.800000
7072;9.100000
7072;0.200000
7072;9.700000
7072;11.000000
7072;7.700000
7072;0.400000
7072;8.100000
7072;8.000000
7072;3.800000
7072;11.100000
7072;7.100000
7072;7.600000
7072;2.000000
7072;0.800000
7072;9.900000
7072;10.100000
7110;11.600000
7110;10.400000
7110;11.400000
7110;9.600000
7110;3.800000
7110;10.300000
7110;7.000000
7110;9.800000
7110;6.500000
7110;11.000000
7110;10.100000
7110;4.900000
7110;9.800000
7110;8.000000
7110;7.200000
7110;8.700000
7110;1.600000
7110;9.200000
7110;9.900000
7110;7.200000
7110;11.500000
7110;7.200000
7110;10.600000
7110;10.400000
7110;6.000000
7110;11.900000
7110;11.900000
7110;11.600000
7110;10.600000
7110;2.500000
7110;7.500000
7110;11.500000
7110;11.200000
7110;7.900000
7110;8.500000
7110;11.900000
7110;8.000000
7110;12.500000
7110;9.400000
7110;10.300000
7110;11.500000
7110;6.700000
7110;10.200000
7110;11.800000
7110;8.900000
7110;8.100000
7110;7.500000
7110;5.200000
7110;6.000000
7110;12.000000
7110;11.800000
7110;10.100000
7110;10.400000
7110;11.300000
7110;10.500000
7110;6.700000
7110;7.200000
7110;8.900000
7110;7.800000
7110;9.500000
7110;9.900000
7110;6.600000
7110;13.100000
7110;6.600000
7110;9.700000
7110;10.200000
7110;9.800000
7110;10.200000
7110;12.500000
7110;7.800000
7110;11.500000
7110;10.600000
7110;11.400000
7110;9.500000
7110;6.500000
7110;8.700000
7110;9.400000
7110;9.700000
7110;7.700000
7110;12.700000
7110;8.800000
7110;10.300000
7110;9.600000
7110;10.400000
7110;7.500000
7110;8.700000
7110;10.700000
7110;5.200000
7110;9.500000
7110;9.500000
7110;11.500000
7110;12.100000
7110;9.400000
7110;11.600000
7110;10.400000
7110;9.900000
7110;9.400000
7110;8.500000
7110;9.200000
7110;11.700000
7110;6.900000
7110;8.200000
7110;11.000000
7110;11.600000
7110;9.400000
7110;4.900000
7110;12.100000
7110;7.000000
7110;9.400000
7110;7.500000
7110;7.200000
7110;11.700000
7110;9.000000
7110;10.600000
7110;10.700000
7110;10.000000
7110;7.500000
7110;11.500000
7110;9.100000
7110;10.800000
7117;12.500000
7117;11.300000
7117;11.500000
7117;9.600000
7117;10.200000
7117;12.500000
7117;13.100000
7117;10.300000
7117;9.200000
7117;10.100000
7117;7.700000
7117;8.000000
7117;2.900000
7117;11.200000
7117;13.000000
7117;7.700000
7117;8.800000
7117;12.600000
7117;12.600000
7117;8.700000
7117;8.700000
7117;7.400000
7117;9.800000
7117;6.700000
7117;9.500000
7117;11.400000
7117;12.800000
7117;7.900000
7117;11.500000
7117;9.000000
7117;12.600000
7117;3.100000
7117;10.500000
7117;10.600000
7117;8.400000
7117;12.500000
7117;10.300000
7117;10.600000
7117;12.800000
7117;7.100000
7117;9.200000
7117;5.600000
7117;10.100000
7117;11.500000
7117;8.300000
7117;7.300000
7117;7.600000
7117;14.300000
7117;12.500000
7117;9.200000
7117;11.600000
7117;13.400000
7117;11.800000
7117;12.500000
7117;8.100000
7117;11.000000
7117;10.600000
7117;8.000000
7117;10.400000
7117;8.400000
7117;9.100000
7117;9.300000
7117;9.300000
7117;7.100000
7117;9.400000
7117;10.000000
7117;12.200000
7117;8.200000
7117;12.400000
7117;12.800000
7117;13.500000
7117;6.400000
7117;4.500000
7117;10.200000
7117;8.400000
7117;8.600000
7117;7.600000
7117;8.700000
7117;9.600000
7117;7.200000
7117;10.000000
7117;9.100000
7117;7.600000
7117;12.000000
7117;10.700000
7117;7.400000
7117;9.600000
7117;8.700000
7117;10.700000
7117;10.500000
7117;11.800000
7117;9.500000
7117;9.400000
7117;7.700000
7117;11.700000
7117;10.700000
7117;7.400000
7117;8.400000
7117;9.800000
7117;8.800000
7117;9.600000
7117;6.600000
7117;12.700000
7117;9.000000
7117;8.300000
7117;10.000000
7117;10.200000
7117;7.900000
7117;6.900000
7117;13.500000
7117;9.700000
7117;8.300000
7117;9.400000
7117;13.100000
7117;8.000000
7117;7.200000
7117;6.600000
7117;10.600000
7117;13.300000
7117;9.700000
7130;12.800000
7130;9.700000
7130;4.200000
7130;9.600000
7130;9.600000
7130;11.200000
7130;12.300000
7130;12.400000
7130;3.800000
7130;2.100000
7130;6.800000
7130;6.400000
7130;12.500000
7130;12.900000
7130;5.900000
7130;6.000000
7130;7.900000
7130;11.600000
7130;12.300000
7130;9.000000
7130;8.000000
7130;9.800000
7130;8.200000
7130;0.400000
7130;13.200000
7130;3.300000
7130;10.300000
7130;10.000000
7130;12.300000
7130;11.800000
7130;11.800000
7130;13.500000
7130;11.100000
7130;12.600000
7130;9.000000
7130;11.000000
7130;8.800000
7130;7.800000
7130;7.500000
7130;6.600000
7130;12.400000
7130;5.500000
7130;9.000000
7130;11.400000
7130;5.800000
7130;10.100000
7130;9.000000
7130;8.200000
7130;7.700000
7130;10.200000
7130;10.200000
7130;12.400000
7130;11.400000
7130;11.600000
7130;7.200000
7130;8.600000
7130;13.300000
7130;7.900000
7130;8.200000
7130;5.000000
7130;9.300000
7130;8.800000
7130;3.200000
7130;8.200000
7130;11.900000
7130;12.100000
7130;4.500000
7130;10.800000
7130;5.500000
7130;7.100000
7130;11.600000
7130;10.800000
7130;8.200000
7130;12.000000
7130;11.900000
7130;6.400000
7130;9.600000
7130;11.200000
7130;11.700000
7130;8.300000
7130;7.400000
7130;8.400000
7130;9.100000
7130;13.000000
7130;5.200000
7130;10.800000
7130;10.000000
7130;8.400000
7130;11.100000
7130;12.900000
7130;9.400000
7130;8.600000
7130;5.300000
7130;12.100000
7130;4.800000
7130;4.300000
7130;8.600000
7130;10.100000
7130;5.900000
7130;12.200000
7130;9.400000
7130;3.500000
7130;1.500000
7130;-0.900000
7130;11.600000
7130;8.900000
7130;12.100000
7130;9.500000
7130;6.500000
7130;4.300000
7130;10.200000
7130;11.700000
7130;12.400000
7130;2.300000
7130;10.300000
7130;8.500000
7130;10.400000
7130;8.500000
7130;10.300000
7130;11.500000
7139;7.100000
7139;2.500000
7139;8.900000
7139;10.100000
7139;0.900000
7139;9.200000
7139;7.600000
7139;8.900000
7139;-0.200000
7139;11.400000
7139;5.900000
7139;5.000000
7139;8.500000
7139;5.900000
7139;9.900000
7139;-0.300000
7139;5.700000
7139;10.100000
7139;6.400000
7139;8.700000
7139;12.200000
7139;11.000000
7139;10.900000
7139;9.700000
7139;9.500000
7139;5.900000
7139;9.100000
7139;11.800000
7139;1.700000
7139;5.600000
7139;8.200000
7139;8.300000
7139;9.200000
7139;1.600000
7139;11.100000
7139;5.600000
7139;7.800000
7139;9.100000
7139;2.900000
7139;7.000000
7139;11.400000
7139;10.600000
7139;7.400000
7139;3.900000
7139;11.800000
7139;6.900000
7139;10.900000
7139;8.700000
7139;4.400000
7139;7.500000
7139;9.100000
7139;9.800000
7139;10.800000
7139;8.800000
7139;8.600000
7139;7.700000
7139;6.500000
7139;11.300000
7139;6.400000
7139;7.700000
7139;-1.400000
7139;5.000000
7139;3.000000
7139;6.600000
7139;8.600000
7139;10.600000
7139;9.200000
7139;3.300000
7139;6.000000
7139;5.700000
7139;8.500000
7139;9.500000
7139;6.500000
7139;6.500000
7139;8.300000
7139;6.000000
7139;3.200000
7139;9.400000
7139;7.000000
7139;6.600000
7139;11.500000
7139;1.900000
7139;9.800000
7139;2.600000
7139;10.000000
7139;9.000000
7139;6.900000
7139;6.100000
7139;6.800000
7139;11.900000
7139;8.900000
7139;10.400000
7139;6.600000
7139;11.700000
7139;7.600000
7139;7.700000
7139;7.500000
7139;6.400000
7139;1.200000
7139;8.100000
7139;6.300000
7139;8.800000
7139;5.600000
7139;9.200000
7139;4.700000
7139;10.300000
7139;1.600000
7139;3.900000
7139;7.300000
7139;8.500000
7139;9.500000
7139;11.400000
7139;5.700000
7139;9.400000
7139;9.000000
7139;7.400000
7139;7.600000
7139;3.500000
7139;5.900000
7139;6.400000
7149;11.600000
7149;8.000000
7149;0.800000
7149;6.000000
7149;8.100000
7149;8.300000
7149;8.200000
7149;8.400000
7149;11.600000
7149;8.700000
7149;10.400000
7149;8.700000
7149;2.500000
7149;4.300000
7149;0.300000
7149;9.600000
7149;10.300000
7149;11.900000
7149;8.600000
7149;0.900000
7149;11.300000
7149;6.800000
7149;6.900000
7149;5.400000
7149;8.500000
7149;9.300000
7149;5.600000
7149;11.300000
7149;9.600000
7149;5.800000
7149;3.600000
7149;8.300000
7149;7.800000
7149;9.000000
7149;8.100000
7149;8.900000
7149;2.100000
7149;2.800000
7149;7.500000
7149;6.500000
7149;6.700000
7149;11.300000
7149;11.400000
7149;3.800000
7149;4.800000
7149;6.800000
7149;11.900000
7149;12.000000
7149;11.400000
7149;9.300000
7149;11.600000
7149;6.800000
7149;8.700000
7149;7.800000
7149;11.300000
7149;8.600000
7149;9.400000
7149;10.000000
7149;8.200000
7149;7.100000
7149;6.700000
7149;3.400000
7149;0.900000
7149;5.100000
7149;8.400000
7149;3.700000
7149;3.900000
7149;9.700000
7149;9.100000
7149;9.800000
7149;8.100000
7149;8.100000
7149;11.500000
7149;11.600000
7149;8.100000
7149;7.500000
7149;3.600000
7149;10.900000
7149;4.300000
7149;8.100000
7149;7.500000
7149;7.700000
7149;10.500000
7149;7.500000
7149;8.300000
7149;8.300000
7149;8.500000
7149;6.200000
7149;10.500000
7149;3.700000
7149;5.900000
7149;3.900000
7149;8.400000
7149;7.500000
7149;4.500000
7149;8.700000
7149;11.400000
7149;8.400000
7149;6.900000
7149;11.000000
7149;2.800000
7149;7.400000
7149;10.200000
7149;6.800000
7149;10.300000
7149;9.300000
7149;12.400000
7149;-0.700000
7149;6.000000
7149;9.800000
7149;5.000000
7149;4.000000
7149;-1.600000
7149;-0.100000
7149;10.400000
7149;11.800000
7149;11.300000
7149;10.500000
7149;8.500000
7149;6.300000
7168;9.900000
7168;8.600000
7168;6.700000
7168;6.700000
7168;8.100000
7168;6.500000
7168;1.100000
7168;11.200000
7168;6.400000
7168;4.100000
7168;6.600000
7168;7.500000
7168;4.500000
7168;6.000000
7168;10.000000
7168;-1.500000
7168;8.500000
7168;0.600000
7168;5.700000
7168;11.400000
7168;-1.200000
7168;6.500000
7168;6.500000
7168;8.300000
7168;8.800000
7168;6.700000
7168;6.400000
7168;11.200000
7168;2.800000
7168;3.600000
7168;6.600000
7168;9.000000
7168;6.900000
7168;10.900000
7168;-2.800000
7168;7.400000
7168;6.700000
7168;11.400000
7168;2.500000
7168;7.000000
7168;13.900000
7168;9.700000
7168;8.200000
7168;5.800000
7168;11.700000
7168;6.600000
7168;9.500000
7168;7.400000
7168;7.200000
7168;7.600000
7168;7.800000
7168;2.000000
7168;10.300000
7168;-1.300000
7168;-0.700000
7168;5.600000
7168;10.500000
7168;9.000000
7168;7.600000
7168;5.200000
7168;10.900000
7168;12.600000
7168;6.100000
7168;6.500000
7168;7.700000
7168;3.400000
7168;9.600000
7168;-1.900000
7168;5.200000
7168;12.500000
7168;12.200000
7168;8.500000
7168;10.600000
7168;8.100000
7168;0.400000
7168;10.500000
7168;-2.900000
7168;11.400000
7168;5.900000
7168;7.700000
7168;2.100000
7168;7.500000
7168;0.400000
7168;0.700000
7168;7.100000
7168;9.600000
7168;3.100000
7168;9.700000
7168;11.200000
7168;7.800000
7168;4.000000
7168;7.700000
7168;2.600000
7168;2.900000
7168;4.400000
7168;8.700000
7168;11.200000
7168;9.200000
7168;13.600000
7168;11.300000
7168;9.100000
7168;6.300000
7168;4.800000
7168;11.800000
7168;7.000000
7168;9.400000
7168;7.000000
7168;1.600000
7168;0.800000
7168;8.100000
7168;-2.100000
7168;6.400000
7168;1.600000
7168;-1.300000
7168;7.200000
7168;12.000000
7168;9.800000
7168;3.800000
7168;3.700000
7168;7.700000
7181;1.500000
7181;4.600000
7181;9.800000
7181;-1.000000
7181;1.600000
7181;2.200000
7181;6.000000
7181;4.200000
7181;5.800000
7181;8.700000
7181;-1.100000
7181;4.800000
7181;6.100000
7181;6.000000
7181;7.700000
7181;6.100000
7181;6.200000
7181;-0.600000
7181;5.900000
7181;1.100000
7181;5.100000
7181;-1.800000
7181;2.100000
7181;5.300000
7181;7.000000
7181;5.400000
7181;2.100000
7181;8.700000
7181;7.200000
7181;7.900000
7181;2.900000
7181;5.500000
7181;-1.100000
7181;-0.200000
7181;-2.000000
7181;9.500000
7181;9.100000
7181;2.800000
7181;6.800000
7181;4.600000
7181;1.500000
7181;3.900000
7181;7.500000
7181;3.900000
7181;6.300000
7181;4.800000
7181;-0.600000
7181;3.000000
7181;6.700000
7181;9.200000
7181;5.600000
7181;7.800000
7181;5.500000
7181;7.400000
7181;-2.000000
7181;4.200000
7181;7.500000
7181;8.400000
7181;4.400000
7181;2.700000
7181;3.400000
7181;4.100000
7181;2.300000
7181;2.300000
7181;9.600000
7181;3.000000
7181;3.700000
7181;3.100000
7181;3.600000
7181;6.100000
7181;0.700000
7181;10.000000
7181;9.400000
7181;11.300000
7181;9.800000
7181;1.800000
7181;5.800000
7181;1.800000
7181;4.400000
7181;-0.300000
7181;5.100000
7181;-2.100000
7181;3.300000
7181;10.400000
7181;12.400000
7181;9.900000
7181;2.500000
7181;12.500000
7181;2.000000
7181;2.200000
7181;4.300000
7181;5.200000
7181;7.500000
7181;0.600000
7181;4.500000
7181;9.500000
7181;5.100000
7181;7.600000
7181;0.000000
7181;-2.000000
7181;5.900000
7181;8.300000
7181;6.500000
7181;-1.500000
7181;2.800000
7181;3.800000
7181;3.700000
7181;8.300000
7181;2.300000
7181;5.800000
7181;3.600000
7181;3.800000
7181;3.300000
7181;7.400000
7181;9.400000
7181;-0.800000
7181;4.600000
7181;7.400000
7181;10.500000
7181;4.200000
7190;2.200000
7190;-1.600000
7190;-0.600000
7190;4.700000
7190;5.900000
7190;0.200000
7190;4.700000
7190;3.300000
7190;4.200000
7190;10.500000
7190;6.200000
7190;11.100000
7190;-1.500000
7190;8.600000
7190;6.900000
7190;11.500000
7190;-0.300000
7190;-1.000000
7190;-1.500000
7190;-0.700000
7190;-1.900000
7190;8.500000
7190;6.200000
7190;8.900000
7190;0.400000
7190;8.200000
7190;2.500000
7190;9.800000
7190;7.300000
7190;0.200000
7190;-0.600000
7190;7.200000
7190;-1.300000
7190;4.200000
7190;-0.200000
7190;7.500000
7190;9.600000
7190;0.900000
7190;4.300000
7190;7.100000
7190;6.600000
7190;12.200000
7190;4.700000
7190;4.600000
7190;10.900000
7190;3.700000
7190;0.100000
7190;12.800000
7190;11.200000
7190;1.200000
7190;9.100000
7190;-0.200000
7190;2.900000
7190;6.800000
7190;1.700000
7190;8.500000
7190;2.200000
7190;5.600000
7190;-1.500000
7190;-0.800000
7190;9.900000
7190;-2.700000
7190;8.300000
7190;13.500000
7190;0.300000
7190;5.000000
7190;4.300000
7190;4.300000
7190;7.000000
7190;1.000000
7190;6.100000
7190;-0.600000
7190;0.200000
7190;7.400000
7190;0.400000
7190;1.000000
7190;-0.200000
7190;6.800000
7190;4.900000
7190;5.500000
7190;-1.100000
7190;-1.600000
7190;5.100000
7190;4.200000
7190;7.700000
7190;6.100000
7190;10.600000
7190;9.600000
7190;4.300000
7190;9.600000
7190;5.400000
7190;-1.200000
7190;7.200000
7190;-0.100000
7190;3.000000
7190;-1.400000
7190;3.800000
7190;5.500000
7190;9.300000
7190;-0.300000
7190;8.800000
7190;7.400000
7190;11.600000
7190;0.000000
7190;-1.000000
7190;8.800000
7190;4.700000
7190;10.000000
7190;7.200000
7190;8.100000
7190;7.400000
7190;1.600000
7190;-3.400000
7190;8.200000
7190;7.600000
7190;2.700000
7190;8.300000
7190;10.300000
7190;5.800000
7190;4.100000
7207;11.200000
7207;12.600000
7207;10.400000
7207;7.400000
7207;11.900000
7207;12.300000
7207;10.700000
7207;11.000000
7207;10.900000
7207;12.800000
7207;8.800000
7207;6.200000
7207;11.300000
7207;10.700000
7207;7.400000
7207;11.900000
7207;11.300000
7207;12.100000
7207;11.700000
7207;7.600000
7207;14.200000
7207;10.800000
7207;10.000000
7207;12.200000
7207;13.000000
7207;10.800000
7207;10.600000
7207;13.300000
7207;9.400000
7207;11.500000
7207;11.600000
7207;11.100000
7207;13.500000
7207;12.500000
7207;11.900000
7207;10.700000
7207;11.900000
7207;9.000000
7207;5.700000
7207;12.000000
7207;11.900000
7207;5.900000
7207;11.900000
7207;11.700000
7207;10.900000
7207;11.200000
7207;10.300000
7207;9.600000
7207;11.900000
7207;13.600000
7207;12.200000
7207;11.700000
7207;11.600000
7207;12.600000
7207;11.700000
7207;10.900000
7207;11.600000
7207;11.400000
7207;12.600000
7207;10.700000
7207;10.100000
7207;11.200000
7207;5.300000
7207;12.000000
7207;6.400000
7207;10.900000
7207;5.400000
7207;10.000000
7207;11.200000
7207;13.600000
7207;12.200000
7207;12.400000
7207;12.700000
7207;11.400000
7207;11.200000
7207;10.800000
7207;11.400000
7207;11.100000
7207;8.700000
7207;12.900000
7207;11.100000
7207;8.000000
7207;10.800000
7207;11.000000
7207;12.000000
7207;12.200000
7207;12.000000
7207;11.900000
7207;10.400000
7207;11.300000
7207;7.600000
7207;7.600000
7207;9.800000
7207;11.900000
7207;11.600000
7207;13.900000
7207;10.700000
7207;11.800000
7207;8.300000
7207;11.800000
7207;12.200000
7207;12.000000
7207;11.900000
7207;12.000000
7207;12.200000
7207;13.200000
7207;9.900000
7207;5.300000
7207;6.700000
7207;6.500000
7207;9.000000
7207;11.400000
7207;10.600000
7207;9.800000
7207;6.200000
7207;10.800000
7207;12.600000
7207;11.600000
7207;11.900000
7207;11.400000
7222;11.500000
7222;13.400000
7222;7.400000
7222;11.500000
7222;9.000000
7222;0.400000
7222;10.500000
7222;12.000000
7222;10.000000
7222;12.700000
7222;11.700000
7222;10.000000
7222;0.600000
7222;11.100000
7222;4.400000
7222;10.000000
7222;9.900000
7222;10.800000
7222;11.500000
7222;11.400000
7222;11.000000
7222;12.200000
7222;12.800000
7222;11.400000
7222;12.300000
7222;11.700000
7222;8.600000
7222;0.400000
7222;11.500000
7222;7.100000
7222;3.900000
7222;11.100000
7222;9.700000
7222;7.900000
7222;11.600000
7222;11.900000
7222;10.000000
7222;10.300000
7222;9.800000
7222;8.700000
7222;11.000000
7222;11.400000
7222;4.400000
7222;9.100000
7222;9.700000
7222;7.200000
7222;9.200000
7222;7.500000
7222;1.500000
7222;5.100000
7222;12.500000
7222;12.800000
7222;11.400000
7222;8.800000
7222;10.500000
7222;8.400000
7222;3.200000
7222;9.200000
7222;10.000000
7222;10.400000
7222;0.100000
7222;10.600000
7222;12.200000
7222;11.500000
7222;11.900000
7222;11.100000
7222;8.100000
7222;11.100000
7222;7.900000
7222;12.500000
7222;7.700000
7222;12.900000
7222;4.000000
7222;6.400000
7222;9.700000
7222;11.700000
7222;9.100000
7222;9.200000
7222;3.200000
7222;8.700000
7222;10.000000
7222;7.700000
7222;9.200000
7222;11.600000
7222;9.600000
7222;9.900000
7222;10.100000
7222;2.900000
7222;11.200000
7222;1.800000
7222;8.100000
7222;12.300000
7222;8.700000
7222;11.300000
7222;4.900000
7222;9.500000
7222;9.800000
7222;10.300000
7222;12.400000
7222;0.200000
7222;9.200000
7222;10.800000
7222;11.500000
7222;8.600000
7222;10.000000
7222;12.600000
7222;11.300000
7222;11.600000
7222;11.400000
7222;2.700000
7222;2.600000
7222;12.600000
7222;12.000000
7222;12.700000
7222;1.900000
7222;9.600000
7222;9.700000
7222;11.600000
7222;8.500000
7222;6.400000
7240;8.400000
7240;7.400000
7240;8.600000
7240;8.500000
7240;8.500000
7240;11.100000
7240;9.000000
7240;7.300000
7240;7.400000
7240;11.200000
7240;9.400000
7240;5.200000
7240;3.700000
7240;5.600000
7240;11.200000
7240;9.700000
7240;7.500000
7240;6.800000
7240;7.200000
7240;7.400000
7240;10.500000
7240;5.200000
7240;3.000000
7240;7.200000
7240;10.300000
7240;11.100000
7240;7.700000
7240;8.000000
7240;2.500000
7240;2.900000
7240;7.900000
7240;8.000000
7240;8.100000
7240;7.900000
7240;11.400000
7240;11.000000
7240;7.800000
7240;8.600000
7240;11.500000
7240;8.500000
7240;10.100000
7240;7.200000
7240;8.600000
7240;10.300000
7240;11.300000
7240;8.400000
7240;2.800000
7240;7.800000
7240;12.600000
7240;5.400000
7240;11.300000
7240;10.700000
7240;4.000000
7240;11.400000
7240;3.600000
7240;1.200000
7240;4.300000
7240;6.600000
7240;8.600000
7240;7.100000
7240;9.800000
7240;9.200000
7240;4.000000
7240;11.300000
7240;8.300000
7240;12.000000
7240;8.800000
7240;5.000000
7240;9.400000
7240;10.100000
7240;6.100000
7240;11.300000
7240;5.200000
7240;9.300000
7240;7.000000
7240;11.400000
7240;8.800000
7240;6.100000
7240;8.300000
7240;8.100000
7240;10.800000
7240;10.300000
7240;2.500000
7240;8.500000
7240;9.200000
7240;8.500000
7240;1.900000
7240;7.100000
7240;7.900000
7240;9.000000
7240;10.500000
7240;10.900000
7240;8.800000
7240;10.400000
7240;6.700000
7240;9.200000
7240;7.800000
7240;1.800000
7240;5.300000
7240;8.200000
7240;5.400000
7240;12.100000
7240;4.500000
7240;8.900000
7240;6.900000
7240;7.900000
7240;8.200000
7240;8.000000
7240;9.100000
7240;-0.100000
7240;8.500000
7240;4.800000
7240;6.900000
7240;6.700000
7240;10.200000
7240;4.700000
7240;7.900000
7240;9.000000
7240;9.500000
7240;11.300000
7255;6.800000
7255;4.800000
7255;11.400000
7255;10.100000
7255;9.900000
7255;7.400000
7255;5.200000
7255;13.300000
7255;13.300000
7255;9.700000
7255;5.200000
7255;9.900000
7255;9.800000
7255;5.000000
7255;6.000000
7255;5.400000
7255;4.900000
7255;5.800000
7255;9.900000
7255;8.200000
7255;4.700000
7255;-1.000000
7255;6.200000
7255;10.700000
7255;6.500000
7255;6.700000
7255;9.400000
7255;11.100000
7255;11.900000
7255;7.200000
7255;11.500000
7255;9.800000
7255;5.300000
7255;9.400000
7255;8.300000
7255;1.300000
7255;6.400000
7255;1.600000
7255;5.600000
7255;6.000000
7255;7.400000
7255;9.600000
7255;8.400000
7255;7.500000
7255;6.400000
7255;13.500000
7255;9.400000
7255;7.500000
7255;11.700000
7255;10.200000
7255;0.600000
7255;8.200000
7255;9.500000
7255;8.200000
7255;6.400000
7255;2.100000
7255;0.200000
7255;5.100000
7255;4.500000
7255;1.600000
7255;14.300000
7255;4.900000
7255;9.400000
7255;8.700000
7255;6.600000
7255;4.400000
7255;9.900000
7255;7.600000
7255;4.600000
7255;7.200000
7255;7.400000
7255;8.500000
7255;14.400000
7255;3.400000
7255;7.400000
7255;5.600000
7255;6.100000
7255;3.900000
7255;3.900000
7255;8.100000
7255;10.400000
7255;12.400000
7255;8.200000
7255;8.300000
7255;9.700000
7255;8.000000
7255;9.500000
7255;7.100000
7255;7.400000
7255;4.100000
7255;10.900000
7255;10.500000
7255;9.800000
7255;9.300000
7255;6.100000
7255;6.900000
7255;5.100000
7255;-1.400000
7255;6.700000
7255;10.100000
7255;9.600000
7255;1.800000
7255;8.800000
7255;5.900000
7255;7.900000
7255;-0.300000
7255;10.800000
7255;0.600000
7255;8.500000
7255;9.900000
7255;11.000000
7255;5.900000
7255;4.500000
7255;0.200000
7255;7.700000
7255;8.900000
7255;5.500000
7255;8.200000
7255;7.100000
7255;5.700000
7280;5.100000
7280;0.300000
7280;1.800000
7280;1.000000
7280;-3.600000
7280;10.300000
7280;13.100000
7280;7.100000
7280;6.700000
7280;0.500000
7280;2.400000
7280;0.500000
7280;5.700000
7280;7.500000
7280;7.700000
7280;1.100000
7280;4.400000
7280;-1.300000
7280;9.100000
7280;7.500000
7280;5.700000
7280;1.600000
7280;6.900000
7280;7.900000
7280;2.100000
7280;2.900000
7280;-1.500000
7280;4.400000
7280;6.400000
7280;8.800000
7280;6.700000
7280;2.800000
7280;6.800000
7280;7.400000
7280;7.900000
7280;-0.100000
7280;10.900000
7280;6.100000
7280;3.500000
7280;3.400000
7280;1.100000
7280;-0.400000
7280;1.400000
7280;5.100000
7280;13.100000
7280;8.800000
7280;7.600000
7280;3.700000
7280;6.300000
7280;8.000000
7280;-3.000000
7280;10.800000
7280;8.200000
7280;-0.100000
7280;6.100000
7280;5.300000
7280;7.400000
7280;3.300000
7280;8.600000
7280;5.000000
7280;1.300000
7280;5.200000
7280;7.700000
7280;7.500000
7280;2.700000
7280;6.400000
7280;7.300000
7280;-0.300000
7280;2.400000
7280;3.800000
7280;7.900000
7280;7.200000
7280;1.100000
7280;1.800000
7280;-0.500000
7280;11.900000
7280;-1.400000
7280;5.200000
7280;2.900000
7280;7.500000
7280;8.000000
7280;9.600000
7280;-0.700000
7280;-0.800000
7280;6.500000
7280;6.300000
7280;9.100000
7280;4.400000
7280;4.200000
7280;2.900000
7280;2.300000
7280;8.500000
7280;4.200000
7280;-1.200000
7280;-0.400000
7280;10.500000
7280;9.700000
7280;-1.100000
7280;0.300000
7280;6.100000
7280;5.300000
7280;6.000000
7280;3.000000
7280;9.700000
7280;-1.000000
7280;0.400000
7280;1.100000
7280;6.300000
7280;7.400000
7280;5.400000
7280;0.700000
7280;6.800000
7280;2.000000
7280;2.600000
7280;-0.600000
7280;6.200000
7280;4.900000
7280;0.800000
7280;7.500000
7280;5.500000
7299;8.100000
7299;5.700000
7299;1.600000
7299;3.700000
7299;-2.100000
7299;0.900000
7299;3.700000
7299;3.900000
7299;2.000000
7299;5.700000
7299;11.800000
7299;-0.100000
7299;-0.200000
7299;3.700000
7299;0.100000
7299;1.000000
7299;-1.500000
7299;-1.300000
7299;3.000000
7299;6.100000
7299;0.600000
7299;6.100000
7299;7.400000
7299;8.500000
7299;2.400000
7299;0.400000
7299;12.700000
7299;4.900000
7299;6.800000
7299;10.300000
7299;-1.700000
7299;6.200000
7299;9.700000
7299;0.300000
7299;-2.600000
7299;4.100000
7299;1.400000
7299;1.500000
7299;2.400000
7299;0.200000
7299;-0.300000
7299;3.700000
7299;5.700000
7299;-2.800000
7299;6.100000
7299;7.900000
7299;3.600000
7299;9.600000
7299;6.000000
7299;7.200000
7299;-1.000000
7299;6.800000
7299;5.900000
7299;6.300000
7299;-2.500000
7299;8.000000
7299;3.700000
7299;-0.800000
7299;-1.300000
7299;2.200000
7299;2.700000
7299;7.600000
7299;-3.100000
7299;-3.500000
7299;7.700000
7299;6.800000
7299;1.000000
7299;7.900000
7299;1.500000
7299;-4.800000
7299;-0.500000
7299;3.100000
7299;2.600000
7299;7.100000
7299;1.100000
7299;6.100000
7299;-1.700000
7299;8.900000
7299;2.400000
7299;10.500000
7299;5.700000
7299;6.200000
7299;3.600000
7299;-1.100000
7299;2.300000
7299;10.200000
7299;3.900000
7299;1.400000
7299;1.000000
7299;5.100000
7299;6.400000
7299;1.100000
7299;7.600000
7299;3.900000
7299;1.100000
7299;4.800000
7299;6.000000
7299;4.300000
7299;1.100000
7299;0.600000
7299;-2.000000
7299;3.600000
7299;12.600000
7299;4.400000
7299;-0.200000
7299;-1.800000
7299;7.500000
7299;6.700000
7299;7.900000
7299;8.200000
7299;1.600000
7299;0.700000
7299;-2.300000
7299;5.900000
7299;5.900000
7299;4.700000
7299;7.500000
7299;1.100000
7299;3.500000
7299;6.300000
7314;10.500000
7314;9.500000
7314;12.400000
7314;9.000000
7314;10.000000
7314;11.800000
7314;11.600000
7314;9.400000
7314;11.700000
7314;10.700000
7314;12.700000
7314;11.300000
7314;11.100000
7314;7.100000
7314;5.300000
7314;6.600000
7314;6.600000
7314;10.900000
7314;11.900000
7314;11.000000
7314;8.200000
7314;11.500000
7314;11.000000
7314;11.400000
7314;2.400000
7314;11.400000
7314;11.600000
7314;10.600000
7314;11.400000
7314;11.600000
7314;11.600000
7314;4.400000
7314;11.100000
7314;10.900000
7314;11.500000
7314;11.200000
7314;11.200000
7314;10.700000
7314;13.500000
7314;6.600000
7314;10.400000
7314;9.300000
7314;8.200000
7314;11.300000
7314;12.300000
7314;12.300000
7314;11.900000
7314;10.500000
7314;12.000000
7314;11.500000
7314;11.100000
7314;10.100000
7314;7.400000
7314;11.100000
7314;10.200000
7314;11.400000
7314;11.400000
7314;6.300000
7314;10.100000
7314;10.500000
7314;10.700000
7314;11.900000
7314;11.300000
7314;10.900000
7314;12.900000
7314;7.900000
7314;7.400000
7314;11.500000
7314;10.700000
7314;11.300000
7314;7.400000
7314;11.700000
7314;11.400000
7314;12.100000
7314;9.200000
7314;12.300000
7314;11.500000
7314;10.200000
7314;5.900000
7314;9.900000
7314;11.500000
7314;11.700000
7314;11.700000
7314;12.100000
7314;11.700000
7314;11.500000
7314;11.300000
7314;9.500000
7314;6.800000
7314;11.400000
7314;5.200000
7314;12.300000
7314;11.400000
7314;11.400000
7314;12.000000
7314;8.400000
7314;7.200000
7314;5.500000
7314;12.400000
7314;12.100000
7314;10.800000
7314;12.200000
7314;11.400000
7314;11.000000
7314;10.800000
7314;10.600000
7314;8.600000
7314;10.800000
7314;10.600000
7314;11.200000
7314;8.400000
7314;9.200000
7314;11.200000
7314;11.500000
7314;11.400000
7314;8.800000
7314;8.200000
7314;10.900000
7314;10.800000
7314;11.600000
7335;4.400000
7335;6.600000
7335;6.700000
7335;9.900000
7335;6.500000
7335;10.500000
7335;11.800000
7335;7.800000
7335;10.400000
7335;2.500000
7335;8.100000
7335;7.200000
7335;8.100000
7335;8.400000
7335;1.600000
7335;6.000000
7335;6.000000
7335;5.100000
7335;10.700000
7335;2.000000
7335;11.500000
7335;8.800000
7335;9.100000
7335;5.700000
7335;4.800000
7335;4.400000
7335;2.300000
7335;10.200000
7335;5.900000
7335;9.500000
7335;12.300000
7335;5.200000
7335;9.700000
7335;10.400000
7335;0.400000
7335;8.100000
7335;6.300000
7335;0.700000
7335;8.700000
7335;9.700000
7335;9.100000
7335;8.700000
7335;10.900000
7335;7.600000
7335;12.400000
7335;7.200000
7335;7.000000
7335;8.400000
7335;1.700000
7335;11.700000
7335;8.500000
7335;11.500000
7335;8.300000
7335;5.600000
7335;6.900000
7335;8.500000
7335;9.000000
7335;6.700000
7335;7.800000
7335;12.100000
7335;7.500000
7335;6.300000
7335;11.400000
7335;10.600000
7335;10.600000
7335;5.500000
7335;7.100000
7335;8.800000
7335;6.300000
7335;7.900000
7335;3.300000
7335;1.600000
7335;8.900000
7335;10.000000
7335;7.800000
7335;8.000000
7335;8.100000
7335;8.900000
7335;6.100000
7335;7.200000
7335;-0.100000
7335;10.200000
7335;4.300000
7335;8.000000
7335;8.800000
7335;1.600000
7335;10.300000
7335;8.900000
7335;10.700000
7335;4.600000
7335;1.500000
7335;7.600000
7335;7.800000
7335;9.800000
7335;7.000000
7335;10.600000
7335;12.300000
7335;3.100000
7335;8.900000
7335;3.800000
7335;3.200000
7335;8.300000
7335;0.800000
7335;10.200000
7335;10.100000
7335;5.200000
7335;7.900000
7335;0.600000
7335;8.000000
7335;8.700000
7335;6.800000
7335;7.200000
7335;7.900000
7335;8.100000
7335;-0.200000
7335;5.300000
7335;7.000000
7335;9.900000
7335;11.000000
7335;5.200000
7434;3.600000
7434;5.100000
7434;7.700000
7434;2.300000
7434;6.500000
7434;4.300000
7434;8.900000
7434;7.600000
7434;5.000000
7434;4.100000
7434;7.800000
7434;5.500000
7434;4.100000
7434;3.700000
7434;6.200000
7434;7.300000
7434;8.100000
7434;4.300000
7434;2.300000
7434;6.900000
7434;7.600000
7434;3.700000
7434;5.200000
7434;4.700000
7434;8.300000
7434;3.000000
7434;4.300000
7434;10.100000
7434;3.300000
7434;6.600000
7434;6.500000
7434;-0.500000
7434;9.700000
7434;6.500000
7434;4.100000
7434;9.100000
7434;4.400000
7434;3.800000
7434;6.500000
7434;5.200000
7434;1.500000
7434;5.200000
7434;4.000000
7434;5.500000
7434;2.700000
7434;8.100000
7434;5.000000
7434;6.700000
7434;5.200000
7434;7.000000
7434;5.400000
7434;5.400000
7434;2.000000
7434;12.200000
7434;-0.300000
7434;8.900000
7434;6.700000
7434;3.800000
7434;5.500000
7434;10.300000
7434;7.700000
7434;2.800000
7434;6.500000
7434;9.400000
7434;5.100000
7434;8.300000
7434;8.500000
7434;9.500000
7434;5.700000
7434;3.800000
7434;5.600000
7434;7.500000
7434;5.400000
7434;9.500000
7434;3.500000
7434;2.900000
7434;3.000000
7434;4.800000
7434;7.400000
7434;3.700000
7434;6.900000
7434;5.200000
7434;8.500000
7434;9.900000
7434;6.500000
7434;5.800000
7434;-0.300000
7434;8.000000
7434;4.500000
7434;6.000000
7434;9.100000
7434;5.600000
7434;8.600000
7434;3.600000
7434;6.800000
7434;1.500000
7434;6.500000
7434;5.200000
7434;5.000000
7434;7.400000
7434;6.700000
7434;6.600000
7434;4.300000
7434;7.800000
7434;4.800000
7434;4.400000
7434;1.400000
7434;12.100000
7434;10.300000
7434;6.700000
7434;5.400000
7434;3.500000
7434;9.400000
7434;1.900000
7434;5.600000
7434;10.300000
7434;7.500000
7434;7.900000
7434;7.900000
7434;1.900000
7460;4.200000
7460;7.300000
7460;4.100000
7460;2.000000
7460;4.400000
7460;8.000000
7460;9.400000
7460;10.600000
7460;9.600000
7460;6.200000
7460;7.100000
7460;6.600000
7460;2.300000
7460;9.200000
7460;0.700000
7460;3.600000
7460;4.400000
7460;13.300000
7460;11.000000
7460;-1.900000
7460;8.200000
7460;2.600000
7460;8.500000
7460;9.700000
7460;8.600000
7460;5.900000
7460;8.100000
7460;6.500000
7460;8.700000
7460;7.400000
7460;13.300000
7460;-1.400000
7460;7.100000
7460;8.100000
7460;5.200000
7460;6.600000
7460;3.400000
7460;9.000000
7460;9.400000
7460;-1.800000
7460;6.800000
7460;6.500000
7460;5.900000
7460;6.000000
7460;3.400000
7460;1.900000
7460;2.200000
7460;10.000000
7460;5.100000
7460;13.200000
7460;0.900000
7460;8.800000
7460;0.500000
7460;9.500000
7460;1.900000
7460;7.600000
7460;11.800000
7460;7.600000
7460;7.900000
7460;6.500000
7460;7.500000
7460;-1.700000
7460;0.100000
7460;10.100000
7460;10.500000
7460;4.300000
7460;0.000000
7460;13.500000
7460;8.900000
7460;0.300000
7460;2.900000
7460;11.000000
7460;9.400000
7460;-1.700000
7460;6.100000
7460;5.100000
7460;15.200000
7460;4.500000
7460;5.600000
7460;10.200000
7460;8.800000
7460;5.300000
7460;10.400000
7460;8.400000
7460;-0.300000
7460;6.800000
7460;8.700000
7460;12.200000
7460;9.300000
7460;7.800000
7460;-1.600000
7460;1.800000
7460;-0.500000
7460;-0.300000
7460;4.000000
7460;2.400000
7460;2.900000
7460;8.700000
7460;6.200000
7460;11.300000
7460;1.000000
7460;1.200000
7460;9.400000
7460;4.200000
7460;9.200000
7460;10.600000
7460;1.400000
7460;0.300000
7460;3.000000
7460;4.000000
7460;5.300000
7460;7.400000
7460;0.100000
7460;12.300000
7460;-0.100000
7460;4.500000
7460;2.500000
7460;2.400000
7460;12.800000
7460;12.600000
7471;8.100000
7471;0.600000
7471;-4.600000
7471;2.000000
7471;4.600000
7471;3.500000
7471;6.500000
7471;-0.400000
7471;-0.600000
7471;4.000000
7471;1.900000
7471;1.300000
7471;-0.900000
7471;-3.200000
7471;8.900000
7471;5.300000
7471;2.200000
7471;8.100000
7471;2.800000
7471;3.300000
7471;-1.900000
7471;6.600000
7471;0.700000
7471;8.100000
7471;-3.900000
7471;3.300000
7471;7.400000
7471;3.600000
7471;6.700000
7471;6.400000
7471;7.500000
7471;0.200000
7471;6.200000
7471;-6.300000
7471;6.200000
7471;0.500000
7471;-2.000000
7471;4.800000
7471;-2.600000
7471;8.100000
7471;-0.300000
7471;5.000000
7471;2.100000
7471;-0.200000
7471;7.000000
7471;6.200000
7471;11.100000
7471;3.700000
7471;7.600000
7471;0.600000
7471;6.700000
7471;3.700000
7471;-1.000000
7471;2.000000
7471;6.400000
7471;0.000000
7471;4.000000
7471;0.300000
7471;6.200000
7471;8.100000
7471;12.400000
7471;-0.400000
7471;-4.400000
7471;9.400000
7471;-0.200000
7471;1.200000
7471;-4.800000
7471;0.200000
7471;7.300000
7471;-2.600000
7471;4.000000
7471;-1.700000
7471;0.400000
7471;6.700000
7471;5.400000
7471;7.000000
7471;4.300000
7471;5.300000
7471;1.400000
7471;-3.900000
7471;6.100000
7471;6.600000
7471;5.900000
7471;4.000000
7471;9.800000
7471;2.200000
7471;7.100000
7471;5.900000
7471;10.500000
7471;-0.400000
7471;5.300000
7471;-0.500000
7471;3.900000
7471;-0.300000
7471;1.100000
7471;2.100000
7471;6.200000
7471;4.700000
7471;-4.600000
7471;6.400000
7471;9.800000
7471;1.200000
7471;1.000000
7471;3.100000
7471;3.700000
7471;-1.500000
7471;6.300000
7471;7.700000
7471;0.700000
7471;0.900000
7471;-2.200000
7471;0.000000
7471;1.000000
7471;-2.500000
7471;4.500000
7471;0.400000
7471;6.600000
7471;-5.100000
7471;-3.300000
7471;5.400000
7481;5.700000
7481;9.300000
7481;4.400000
7481;10.200000
7481;1.600000
7481;8.600000
7481;6.500000
7481;7.000000
7481;1.200000
7481;1.800000
7481;2.200000
7481;0.600000
7481;-0.700000
7481;8.200000
7481;12.100000
7481;10.400000
7481;8.200000
7481;4.100000
7481;2.300000
7481;5.100000
7481;10.800000
7481;-0.700000
7481;-0.700000
7481;7.700000
7481;6.900000
7481;8.500000
7481;7.000000
7481;1.300000
7481;5.200000
7481;2.800000
7481;-0.300000
7481;-0.900000
7481;10.500000
7481;10.500000
7481;4.600000
7481;4.700000
7481;6.000000
7481;2.000000
7481;8.800000
7481;3.400000
7481;0.800000
7481;8.400000
7481;2.000000
7481;3.600000
7481;6.100000
7481;-0.100000
7481;-0.900000
7481;11.700000
7481;10.200000
7481;4.300000
7481;7.500000
7481;0.600000
7481;7.300000
7481;7.000000
7481;8.500000
7481;5.500000
7481;7.900000
7481;-0.500000
7481;12.900000
7481;-0.600000
7481;3.700000
7481;-0.200000
7481;4.900000
7481;5.700000
7481;2.600000
7481;9.500000
7481;3.700000
7481;12.100000
7481;1.400000
7481;5.600000
7481;9.000000
7481;7.800000
7481;6.000000
7481;6.200000
7481;0.300000
7481;1.400000
7481;5.900000
7481;10.900000
7481;6.000000
7481;6.500000
7481;5.900000
7481;7.300000
7481;6.600000
7481;7.400000
7481;4.500000
7481;6.900000
7481;10.600000
7481;9.000000
7481;4.600000
7481;7.400000
7481;6.000000
7481;12.200000
7481;10.500000
7481;11.900000
7481;0.700000
7481;-0.700000
7481;-0.800000
7481;-0.300000
7481;-0.100000
7481;13.000000
7481;10.100000
7481;2.000000
7481;10.500000
7481;11.800000
7481;6.000000
7481;6.300000
7481;0.900000
7481;1.200000
7481;8.900000
7481;3.500000
7481;8.300000
7481;8.100000
7481;9.900000
7481;3.900000
7481;8.100000
7481;-0.500000
7481;-1.200000
7481;7.900000
7481;6.700000
7481;6.100000
7510;9.100000
7510;5.700000
7510;8.000000
7510;6.700000
7510;11.100000
7510;10.900000
7510;3.000000
7510;-0.600000
7510;10.200000
7510;1.000000
7510;10.600000
7510;10.200000
7510;6.800000
7510;8.800000
7510;7.800000
7510;5.900000
7510;8.700000
7510;1.400000
7510;6.900000
7510;8.800000
7510;2.000000
7510;10.800000
7510;8.000000
7510;15.200000
7510;10.600000
7510;9.700000
7510;4.900000
7510;0.700000
7510;9.400000
7510;6.000000
7510;9.100000
7510;-1.000000
7510;9.100000
7510;9.500000
7510;8.500000
7510;4.300000
7510;9.100000
7510;10.800000
7510;5.900000
7510;12.000000
7510;7.800000
7510;9.000000
7510;10.500000
7510;8.500000
7510;8.900000
7510;10.000000
7510;9.100000
7510;5.900000
7510;7.200000
7510;15.000000
7510;8.100000
7510;8.900000
7510;13.700000
7510;12.300000
7510;10.200000
7510;8.200000
7510;0.500000
7510;8.300000
7510;9.100000
7510;-0.700000
7510;-0.100000
7510;11.500000
7510;1.700000
7510;0.000000
7510;10.100000
7510;10.100000
7510;16.100000
7510;2.400000
7510;8.600000
7510;5.700000
7510;8.900000
7510;12.600000
7510;8.600000
7510;8.500000
7510;2.700000
7510;5.100000
7510;-0.400000
7510;13.800000
7510;11.400000
7510;4.000000
7510;9.600000
7510;10.900000
7510;5.200000
7510;11.200000
7510;7.200000
7510;5.800000
7510;11.700000
7510;10.400000
7510;14.900000
7510;13.000000
7510;6.900000
7510;5.800000
7510;3.500000
7510;11.400000
7510;5.600000
7510;7.400000
7510;9.900000
7510;9.600000
7510;4.800000
7510;9.300000
7510;9.100000
7510;15.500000
7510;5.000000
7510;11.200000
7510;3.400000
7510;9.800000
7510;8.300000
7510;8.400000
7510;10.900000
7510;4.100000
7510;2.400000
7510;11.200000
7510;11.300000
7510;9.800000
7510;5.700000
7510;9.500000
7510;6.100000
7510;12.700000
7510;9.400000
7510;5.400000
7535;-0.700000
7535;8.700000
7535;10.800000
7535;8.100000
7535;4.100000
7535;-1.400000
7535;9.300000
7535;8.100000
7535;5.700000
7535;13.700000
7535;8.600000
7535;8.600000
7535;8.300000
7535;1.000000
7535;1.900000
7535;-2.000000
7535;2.900000
7535;4.500000
7535;14.600000
7535;8.000000
7535;7.900000
7535;8.100000
7535;5.000000
7535;0.300000
7535;8.300000
7535;8.100000
7535;5.300000
7535;5.100000
7535;0.200000
7535;12.600000
7535;12.300000
7535;7.000000
7535;2.900000
7535;5.700000
7535;11.400000
7535;5.000000
7535;7.200000
7535;8.400000
7535;8.000000
7535;-0.500000
7535;4.300000
7535;8.800000
7535;4.600000
7535;7.100000
7535;8.000000
7535;-0.200000
7535;12.100000
7535;8.900000
7535;5.500000
7535;-1.500000
7535;8.500000
7535;5.800000
7535;0.900000
7535;3.900000
7535;8.600000
7535;8.200000
7535;-0.300000
7535;11.100000
7535;10.600000
7535;-0.800000
7535;7.600000
7535;7.800000
7535;7.800000
7535;-0.700000
7535;13.600000
7535;-1.800000
7535;4.200000
7535;5.400000
7535;12.800000
7535;8.100000
7535;5.600000
7535;10.400000
7535;7.500000
7535;6.100000
7535;7.100000
7535;5.700000
7535;-0.500000
7535;9.300000
7535;5.600000
7535;12.200000
7535;8.700000
7535;2.300000
7535;4.600000
7535;6.900000
7535;5.600000
7535;-2.700000
7535;7.700000
7535;8.100000
7535;7.700000
7535;7.800000
7535;3.100000
7535;3.300000
7535;5.400000
7535;4.600000
7535;-1.700000
7535;6.100000
7535;5.900000
7535;3.900000
7535;6.900000
7535;0.800000
7535;1.900000
7535;0.300000
7535;6.100000
7535;-1.000000
7535;12.400000
7535;-0.200000
7535;9.500000
7535;7.300000
7535;6.700000
7535;8.100000
7535;11.100000
7535;2.900000
7535;7.800000
7535;8.700000
7535;10.400000
7535;8.300000
7535;1.400000
7535;9.100000
7535;5.400000
7535;14.400000
7558;6.400000
7558;9.200000
7558;6.900000
7558;5.700000
7558;3.800000
7558;1.600000
7558;6.300000
7558;4.400000
7558;1.500000
7558;5.900000
7558;7.600000
7558;7.000000
7558;5.200000
7558;7.000000
7558;4.900000
7558;6.700000
7558;11.300000
7558;4.600000
7558;-0.300000
7558;7.300000
7558;1.400000
7558;3.400000
7558;8.400000
7558;-4.200000
7558;3.900000
7558;6.200000
7558;5.100000
7558;1.700000
7558;6.800000
7558;6.000000
7558;5.800000
7558;0.200000
7558;1.800000
7558;1.600000
7558;2.700000
7558;6.500000
7558;8.700000
7558;5.300000
7558;10.700000
7558;4.700000
7558;3.100000
7558;6.400000
7558;-0.200000
7558;7.000000
7558;5.000000
7558;-2.700000
7558;6.800000
7558;0.800000
7558;0.700000
7558;5.400000
7558;7.200000
7558;6.700000
7558;5.300000
7558;3.300000
7558;7.200000
7558;6.800000
7558;5.900000
7558;5.900000
7558;5.700000
7558;3.500000
7558;7.200000
7558;0.600000
7558;-3.400000
7558;8.500000
7558;-1.000000
7558;-0.500000
7558;8.400000
7558;0.700000
7558;6.300000
7558;-0.500000
7558;0.500000
7558;5.200000
7558;8.500000
7558;4.400000
7558;7.800000
7558;5.200000
7558;5.800000
7558;1.700000
7558;7.000000
7558;5.100000
7558;7.100000
7558;1.800000
7558;1.700000
7558;-3.700000
7558;0.600000
7558;7.900000
7558;4.000000
7558;3.800000
7558;3.400000
7558;5.900000
7558;5.900000
7558;4.500000
7558;-1.000000
7558;2.700000
7558;-0.400000
7558;5.200000
7558;1.800000
7558;6.600000
7558;5.900000
7558;6.500000
7558;3.000000
7558;6.400000
7558;-3.700000
7558;6.600000
7558;5.500000
7558;2.900000
7558;0.700000
7558;0.200000
7558;2.200000
7558;5.600000
7558;-1.700000
7558;5.100000
7558;3.300000
7558;7.500000
7558;-0.700000
7558;6.000000
7558;7.900000
7558;-0.900000
7558;5.000000
7558;1.300000
7577;4.400000
7577;10.800000
7577;6.100000
7577;1.200000
7577;8.700000
7577;7.500000
7577;2.600000
7577;3.900000
7577;11.500000
7577;8.400000
7577;8.300000
7577;8.300000
7577;10.500000
7577;1.800000
7577;8.500000
7577;8.500000
7577;5.200000
7577;4.600000
7577;5.100000
7577;6.100000
7577;9.500000
7577;10.000000
7577;7.400000
7577;10.600000
7577;5.100000
7577;6.000000
7577;0.900000
7577;10.800000
7577;1.700000
7577;12.500000
7577;-0.300000
7577;7.700000
7577;3.500000
7577;10.500000
7577;1.600000
7577;11.000000
7577;11.200000
7577;8.000000
7577;2.600000
7577;5.800000
7577;0.800000
7577;4.800000
7577;10.400000
7577;-0.900000
7577;9.400000
7577;6.900000
7577;6.700000
7577;7.600000
7577;11.800000
7577;8.400000
7577;11.500000
7577;1.100000
7577;10.500000
7577;5.100000
7577;6.500000
7577;8.200000
7577;6.200000
7577;9.500000
7577;4.900000
7577;8.800000
7577;4.400000
7577;0.600000
7577;9.600000
7577;5.300000
7577;8.800000
7577;9.700000
7577;9.000000
7577;10.800000
7577;5.700000
7577;2.700000
7577;10.700000
7577;0.100000
7577;7.100000
7577;7.100000
7577;9.400000
7577;11.200000
7577;12.400000
7577;8.900000
7577;12.700000
7577;9.400000
7577;9.600000
7577;4.000000
7577;10.800000
7577;0.700000
7577;10.700000
7577;4.000000
7577;10.600000
7577;10.500000
7577;12.800000
7577;5.400000
7577;0.200000
7577;7.800000
7577;8.200000
7577;4.100000
7577;8.600000
7577;8.400000
7577;4.300000
7577;7.000000
7577;11.000000
7577;12.200000
7577;2.700000
7577;1.200000
7577;5.400000
7577;5.800000
7577;8.400000
7577;-1.200000
7577;11.300000
7577;2.300000
7577;6.600000
7577;9.800000
7577;7.000000
7577;6.500000
7577;5.100000
7577;9.600000
7577;7.200000
7577;4.800000
7577;11.000000
7577;2.000000
7577;5.900000
7577;2.100000
7591;0.800000
7591;7.100000
7591;3.300000
7591;-2.400000
7591;-0.700000
7591;1.400000
7591;-3.000000
7591;-1.200000
7591;-0.900000
7591;8.500000
7591;-0.400000
7591;0.300000
7591;2.800000
7591;9.400000
7591;-0.100000
7591;3.600000
7591;-2.100000
7591;3.600000
7591;10.100000
7591;9.800000
7591;6.500000
7591;8.600000
7591;3.200000
7591;-1.400000
7591;4.500000
7591;1.700000
7591;-0.900000
7591;7.500000
7591;1.600000
7591;-1.400000
7591;6.300000
7591;3.800000
7591;-0.600000
7591;-1.700000
7591;-1.200000
7591;0.900000
7591;-0.300000
7591;6.400000
7591;1.000000
7591;2.400000
7591;1.500000
7591;1.600000
7591;-0.200000
7591;2.000000
7591;-0.200000
7591;-4.000000
7591;8.300000
7591;-2.700000
7591;0.800000
7591;-1.400000
7591;2.100000
7591;2.300000
7591;1.500000
7591;2.100000
7591;2.400000
7591;9.100000
7591;-0.200000
7591;1.900000
7591;7.900000
7591;2.300000
7591;-2.500000
7591;4.100000
7591;6.800000
7591;1.000000
7591;-1.000000
7591;-0.500000
7591;-0.800000
7591;1.900000
7591;2.400000
7591;-2.900000
7591;-1.200000
7591;8.500000
7591;2.600000
7591;1.500000
7591;7.400000
7591;-0.700000
7591;-0.100000
7591;6.400000
7591;8.400000
7591;0.700000
7591;0.200000
7591;12.300000
7591;1.300000
7591;0.700000
7591;-1.200000
7591;-0.700000
7591;4.400000
7591;5.400000
7591;0.400000
7591;9.900000
7591;4.200000
7591;-0.900000
7591;0.200000
7591;3.100000
7591;0.500000
7591;1.700000
7591;-3.500000
7591;11.200000
7591;5.100000
7591;7.500000
7591;-0.500000
7591;3.700000
7591;0.300000
7591;-1.800000
7591;9.800000
7591;8.100000
7591;8.200000
7591;-1.200000
7591;1.700000
7591;2.000000
7591;0.400000
7591;-2.000000
7591;2.500000
7591;0.300000
7591;-1.200000
7591;1.200000
7591;6.800000
7591;0.600000
7591;7.600000
7591;9.500000
7607;3.600000
7607;-1.500000
7607;4.500000
7607;1.500000
7607;7.200000
7607;9.700000
7607;10.600000
7607;5.200000
7607;9.600000
7607;6.300000
7607;9.300000
7607;-1.200000
7607;8.100000
7607;7.400000
7607;5.900000
7607;11.300000
7607;12.600000
7607;5.700000
7607;10.800000
7607;7.800000
7607;7.700000
7607;5.100000
7607;13.800000
7607;12.300000
7607;10.500000
7607;0.100000
7607;2.400000
7607;1.300000
7607;4.600000
7607;3.100000
7607;11.300000
7607;8.400000
7607;11.800000
7607;3.500000
7607;8.100000
7607;1.000000
7607;6.100000
7607;3.600000
7607;1.800000
7607;2.000000
7607;7.700000
7607;8.900000
7607;13.200000
7607;8.500000
7607;12.300000
7607;10.200000
7607;1.900000
7607;9.400000
7607;-0.500000
7607;6.600000
7607;7.900000
7607;9.400000
7607;-0.800000
7607;-0.100000
7607;-0.100000
7607;-2.700000
7607;6.200000
7607;2.000000
7607;2.600000
7607;7.400000
7607;6.400000
7607;10.300000
7607;8.400000
7607;9.800000
7607;3.400000
7607;3.600000
7607;15.000000
7607;5.300000
7607;5.800000
7607;0.700000
7607;9.200000
7607;18.500000
7607;6.800000
7607;6.900000
7607;3.400000
7607;5.300000
7607;-1.500000
7607;11.600000
7607;-0.100000
7607;-0.600000
7607;9.100000
7607;10.800000
7607;3.600000
7607;1.900000
7607;1.700000
7607;7.700000
7607;1.400000
7607;4.300000
7607;0.300000
7607;15.000000
7607;1.000000
7607;-0.100000
7607;3.800000
7607;9.400000
7607;5.300000
7607;1.900000
7607;10.900000
7607;12.100000
7607;0.600000
7607;10.700000
7607;2.300000
7607;6.100000
7607;7.700000
7607;1.100000
7607;4.300000
7607;13.000000
7607;4.500000
7607;14.300000
7607;16.000000
7607;4.900000
7607;5.900000
7607;8.600000
7607;8.900000
7607;3.700000
7607;5.100000
7607;8.500000
7607;-3.600000
7607;9.500000
7607;13.100000
7607;8.500000
7621;12.400000
7621;3.500000
7621;5.400000
7621;8.100000
7621;16.900000
7621;5.800000
7621;9.000000
7621;4.200000
7621;3.900000
7621;0.400000
7621;-0.500000
7621;8.700000
7621;9.500000
7621;3.000000
7621;12.600000
7621;13.900000
7621;4.800000
7621;7.100000
7621;3.800000
7621;4.800000
7621;8.700000
7621;0.700000
7621;5.000000
7621;6.300000
7621;9.100000
7621;5.900000
7621;16.500000
7621;6.300000
7621;3.300000
7621;2.000000
7621;9.800000
7621;5.300000
7621;5.000000
7621;6.100000
7621;3.600000
7621;7.400000
7621;5.700000
7621;7.700000
7621;4.400000
7621;3.800000
7621;5.500000
7621;-0.600000
7621;2.000000
7621;12.100000
7621;5.100000
7621;-1.300000
7621;5.500000
7621;2.600000
7621;3.500000
7621;-0.900000
7621;0.500000
7621;10.900000
7621;8.200000
7621;13.000000
7621;1.600000
7621;6.400000
7621;12.600000
7621;3.100000
7621;5.400000
7621;1.000000
7621;9.500000
7621;11.700000
7621;3.100000
7621;-0.300000
7621;8.600000
7621;2.800000
7621;7.500000
7621;1.800000
7621;-0.100000
7621;-1.500000
7621;13.800000
7621;6.500000
7621;0.600000
7621;6.500000
7621;6.200000
7621;2.000000
7621;2.200000
7621;4.500000
7621;9.100000
7621;14.300000
7621;6.900000
7621;1.600000
7621;10.100000
7621;3.900000
7621;10.000000
7621;5.300000
7621;11.000000
7621;1.600000
7621;1.200000
7621;0.000000
7621;2.200000
7621;0.200000
7621;10.300000
7621;3.600000
7621;10.100000
7621;12.800000
7621;6.000000
7621;7.800000
7621;14.400000
7621;9.700000
7621;2.300000
7621;2.100000
7621;-0.500000
7621;7.200000
7621;5.600000
7621;3.400000
7621;8.600000
7621;-0.200000
7621;9.400000
7621;5.200000
7621;4.500000
7621;2.000000
7621;4.900000
7621;11.900000
7621;7.900000
7621;-1.700000
7621;8.800000
7621;5.900000
7621;4.900000
7621;6.200000
7627;6.700000
7627;-0.800000
7627;1.600000
7627;2.700000
7627;6.500000
7627;5.800000
7627;9.600000
7627;8.200000
7627;12.000000
7627;0.400000
7627;0.400000
7627;2.500000
7627;4.600000
7627;13.500000
7627;10.100000
7627;11.300000
7627;-3.800000
7627;1.400000
7627;14.700000
7627;1.800000
7627;3.400000
7627;1.900000
7627;2.300000
7627;-1.500000
7627;10.800000
7627;3.800000
7627;3.200000
7627;7.800000
7627;9.000000
7627;4.000000
7627;9.300000
7627;6.400000
7627;5.900000
7627;-2.700000
7627;2.100000
7627;13.500000
7627;3.700000
7627;0.300000
7627;7.600000
7627;-0.600000
7627;5.500000
7627;4.200000
7627;3.300000
7627;5.100000
7627;2.900000
7627;0.900000
7627;8.900000
7627;1.900000
7627;-0.200000
7627;6.000000
7627;16.400000
7627;4.500000
7627;7.200000
7627;8.400000
7627;5.700000
7627;7.500000
7627;4.900000
7627;3.300000
7627;14.100000
7627;16.799999
7627;5.400000
7627;6.700000
7627;11.400000
7627;11.900000
7627;6.500000
7627;1.900000
7627;2.800000
7627;8.700000
7627;1.700000
7627;10.100000
7627;5.800000
7627;1.300000
7627;6.800000
7627;-1.800000
7627;-2.800000
7627;1.700000
7627;0.400000
7627;7.200000
7627;11.000000
7627;2.700000
7627;-2.800000
7627;7.000000
7627;8.200000
7627;6.700000
7627;6.300000
7627;2.700000
7627;-1.800000
7627;4.400000
7627;10.000000
7627;3.300000
7627;3.000000
7627;10.600000
7627;10.000000
7627;6.300000
7627;13.200000
7627;-1.800000
7627;-0.900000
7627;12.900000
7627;15.000000
7627;8.400000
7627;2.200000
7627;0.900000
7627;3.000000
7627;8.600000
7627;0.900000
7627;9.700000
7627;0.400000
7627;3.100000
7627;10.300000
7627;6.100000
7627;4.900000
7627;15.000000
7627;5.200000
7627;1.800000
7627;7.300000
7627;4.400000
7627;4.700000
7627;3.700000
7627;2.800000
7627;14.200000
7630;5.700000
7630;-1.600000
7630;7.200000
7630;10.300000
7630;2.200000
7630;13.700000
7630;10.800000
7630;8.600000
7630;2.300000
7630;6.000000
7630;9.900000
7630;6.700000
7630;10.500000
7630;11.800000
7630;0.400000
7630;10.900000
7630;9.400000
7630;5.100000
7630;3.700000
7630;8.900000
7630;5.400000
7630;6.200000
7630;10.800000
7630;11.000000
7630;6.600000
7630;9.000000
7630;11.000000
7630;8.700000
7630;7.800000
7630;4.100000
7630;10.400000
7630;1.900000
7630;8.000000
7630;9.900000
7630;-0.500000
7630;3.000000
7630;10.600000
7630;1.300000
7630;-1.900000
7630;13.000000
7630;10.400000
7630;5.400000
7630;11.900000
7630;5.000000
7630;8.800000
7630;3.400000
7630;10.500000
7630;2.500000
7630;6.900000
7630;3.500000
7630;7.500000
7630;9.500000
7630;6.300000
7630;1.000000
7630;9.300000
7630;8.800000
7630;7.200000
7630;13.000000
7630;12.900000
7630;-0.400000
7630;4.300000
7630;6.900000
7630;10.500000
7630;4.500000
7630;8.500000
7630;1.600000
7630;12.800000
7630;0.100000
7630;8.100000
7630;7.800000
7630;3.000000
7630;12.500000
7630;9.800000
7630;1.600000
7630;5.200000
7630;7.000000
7630;11.700000
7630;7.500000
7630;6.200000
7630;10.500000
7630;8.400000
7630;8.300000
7630;9.400000
7630;0.700000
7630;0.800000
7630;9.800000
7630;7.400000
7630;-1.900000
7630;9.900000
7630;5.300000
7630;8.600000
7630;8.900000
7630;9.300000
7630;8.100000
7630;9.100000
7630;3.600000
7630;9.300000
7630;8.700000
7630;8.500000
7630;3.100000
7630;9.800000
7630;3.100000
7630;6.400000
7630;0.900000
7630;4.600000
7630;2.900000
7630;10.300000
7630;12.900000
7630;9.600000
7630;11.300000
7630;7.900000
7630;9.500000
7630;9.500000
7630;9.200000
7630;11.300000
7630;10.000000
7630;4.100000
7630;6.700000
7630;3.400000
7630;8.300000
7643;12.500000
7643;14.700000
7643;3.900000
7643;5.400000
7643;3.100000
7643;5.100000
7643;7.100000
7643;2.900000
7643;12.000000
7643;8.900000
7643;13.400000
7643;9.900000
7643;7.900000
7643;10.800000
7643;12.600000
7643;3.400000
7643;4.600000
7643;8.000000
7643;10.400000
7643;16.799999
7643;9.100000
7643;0.400000
7643;9.600000
7643;15.600000
7643;1.700000
7643;9.100000
7643;4.700000
7643;-0.700000
7643;6.600000
7643;6.500000
7643;3.600000
7643;9.800000
7643;12.600000
7643;13.200000
7643;7.000000
7643;12.600000
7643;4.200000
7643;13.200000
7643;11.600000
7643;9.400000
7643;7.500000
7643;1.500000
7643;3.100000
7643;6.200000
7643;13.000000
7643;14.300000
7643;4.700000
7643;6.600000
7643;1.700000
7643;6.200000
7643;13.400000
7643;1.400000
7643;8.900000
7643;5.000000
7643;10.800000
7643;9.400000
7643;11.900000
7643;12.200000
7643;14.700000
7643;16.000000
7643;4.100000
7643;4.100000
7643;6.500000
7643;7.600000
7643;-0.600000
7643;12.900000
7643;1.600000
7643;15.200000
7643;7.500000
7643;5.500000
7643;6.500000
7643;2.000000
7643;9.400000
7643;9.900000
7643;2.600000
7643;11.900000
7643;9.400000
7643;7.100000
7643;10.000000
7643;9.100000
7643;7.500000
7643;13.900000
7643;10.300000
7643;8.200000
7643;10.600000
7643;9.400000
7643;8.200000
7643;7.200000
7643;7.500000
7643;10.900000
7643;4.800000
7643;6.600000
7643;12.400000
7643;10.600000
7643;8.400000
7643;10.900000
7643;13.200000
7643;7.000000
7643;4.700000
7643;6.400000
7643;8.600000
7643;8.400000
7643;5.000000
7643;10.700000
7643;11.300000
7643;2.800000
7643;13.100000
7643;13.600000
7643;7.800000
7643;10.000000
7643;11.700000
7643;14.000000
7643;11.400000
7643;5.900000
7643;7.200000
7643;7.100000
7643;7.400000
7643;3.800000
7643;12.500000
7643;5.000000
7650;4.500000
7650;4.100000
7650;2.200000
7650;11.400000
7650;8.400000
7650;4.900000
7650;14.000000
7650;6.500000
7650;4.000000
7650;3.400000
7650;10.500000
7650;10.300000
7650;5.800000
7650;1.500000
7650;11.400000
7650;12.600000
7650;6.600000
7650;1.000000
7650;11.400000
7650;10.900000
7650;13.200000
7650;8.600000
7650;9.600000
7650;6.400000
7650;5.900000
7650;8.300000
7650;10.100000
7650;9.400000
7650;1.000000
7650;1.300000
7650;13.800000
7650;2.700000
7650;1.100000
7650;12.600000
7650;13.400000
7650;11.800000
7650;12.500000
7650;8.700000
7650;3.800000
7650;12.400000
7650;13.300000
7650;11.400000
7650;2.700000
7650;12.800000
7650;6.700000
7650;12.400000
7650;8.200000
7650;5.700000
7650;9.200000
7650;11.300000
7650;11.700000
7650;8.900000
7650;1.500000
7650;9.900000
7650;2.500000
7650;10.900000
7650;4.900000
7650;8.100000
7650;12.000000
7650;2.800000
7650;6.500000
7650;4.700000
7650;8.200000
7650;8.300000
7650;6.500000
7650;11.100000
7650;11.900000
7650;8.600000
7650;8.600000
7650;12.400000
7650;9.400000
7650;9.200000
7650;12.400000
7650;0.100000
7650;10.600000
7650;8.800000
7650;9.500000
7650;7.200000
7650;9.900000
7650;2.700000
7650;3.900000
7650;8.000000
7650;12.800000
7650;0.500000
7650;9.600000
7650;8.700000
7650;6.000000
7650;6.600000
7650;8.400000
7650;9.200000
7650;3.300000
7650;12.400000
7650;10.100000
7650;12.000000
7650;1.200000
7650;13.900000
7650;5.200000
7650;11.400000
7650;13.900000
7650;6.200000
7650;11.500000
7650;9.000000
7650;13.800000
7650;13.600000
7650;9.900000
7650;11.000000
7650;13.500000
7650;2.800000
7650;3.000000
7650;6.000000
7650;14.100000
7650;2.500000
7650;7.500000
7650;8.200000
7650;3.000000
7650;0.800000
7650;2.500000
7650;9.000000
7650;5.900000
7650;8.100000
7661;13.100000
7661;8.200000
7661;12.400000
7661;9.700000
7661;15.200000
7661;10.000000
7661;13.200000
7661;8.200000
7661;11.400000
7661;11.200000
7661;11.900000
7661;11.800000
7661;7.400000
7661;10.700000
7661;8.300000
7661;5.500000
7661;14.400000
7661;10.500000
7661;8.900000
7661;14.800000
7661;10.700000
7661;12.300000
7661;9.600000
7661;11.600000
7661;8.400000
7661;9.700000
7661;10.900000
7661;9.400000
7661;8.300000
7661;7.900000
7661;13.500000
7661;10.100000
7661;14.500000
7661;9.700000
7661;12.500000
7661;8.400000
7661;11.000000
7661;12.500000
7661;9.000000
7661;9.200000
7661;15.700000
7661;12.200000
7661;10.500000
7661;11.500000
7661;8.000000
7661;15.500000
7661;9.800000
7661;10.700000
7661;16.400000
7661;11.900000
7661;11.500000
7661;9.700000
7661;11.800000
7661;7.300000
7661;11.400000
7661;8.300000
7661;8.900000
7661;9.400000
7661;5.400000
7661;11.300000
7661;9.600000
7661;8.700000
7661;11.500000
7661;14.200000
7661;7.700000
7661;10.800000
7661;9.000000
7661;10.700000
7661;9.100000
7661;11.700000
7661;9.600000
7661;8.000000
7661;14.100000
7661;9.300000
7661;8.300000
7661;8.700000
7661;9.700000
7661;10.400000
7661;10.600000
7661;11.900000
7661;7.800000
7661;13.400000
7661;10.400000
7661;8.900000
7661;10.200000
7661;11.100000
7661;10.200000
7661;14.100000
7661;13.100000
7661;8.200000
7661;8.700000
7661;10.700000
7661;7.100000
7661;14.400000
7661;10.300000
7661;7.500000
7661;14.800000
7661;10.900000
7661;8.500000
7661;13.000000
7661;10.700000
7661;10.800000
7661;10.200000
7661;6.700000
7661;12.500000
7661;10.200000
7661;9.400000
7661;14.100000
7661;15.300000
7661;12.500000
7661;13.800000
7661;12.000000
7661;8.800000
7661;8.100000
7661;10.800000
7661;10.500000
7661;10.700000
7661;11.300000
7661;9.400000
7661;12.000000
7690;7.500000
7690;6.700000
7690;8.300000
7690;10.000000
7690;12.500000
7690;8.100000
7690;8.700000
7690;7.900000
7690;9.500000
7690;7.300000
7690;9.000000
7690;8.300000
7690;10.400000
7690;12.400000
7690;14.400000
7690;6.600000
7690;9.000000
7690;10.100000
7690;13.200000
7690;7.200000
7690;12.800000
7690;8.300000
7690;9.000000
7690;7.200000
7690;8.900000
7690;13.700000
7690;14.300000
7690;14.100000
7690;9.700000
7690;6.900000
7690;8.300000
7690;6.500000
7690;7.500000
7690;7.700000
7690;8.500000
7690;14.600000
7690;9.500000
7690;8.500000
7690;14.500000
7690;15.500000
7690;8.000000
7690;14.000000
7690;13.800000
7690;9.200000
7690;7.400000
7690;14.400000
7690;6.100000
7690;7.500000
7690;10.400000
7690;8.800000
7690;9.800000
7690;8.100000
7690;7.900000
7690;9.500000
7690;9.300000
7690;8.300000
7690;13.500000
7690;9.100000
7690;10.300000
7690;15.400000
7690;6.900000
7690;6.100000
7690;8.400000
7690;8.000000
7690;9.400000
7690;6.800000
7690;7.400000
7690;9.000000
7690;6.600000
7690;6.700000
7690;7.800000
7690;11.700000
7690;9.500000
7690;7.800000
7690;6.800000
7690;6.100000
7690;13.800000
7690;7.300000
7690;9.000000
7690;7.100000
7690;9.700000
7690;9.500000
7690;10.600000
7690;6.200000
7690;11.700000
7690;10.000000
7690;5.400000
7690;9.000000
7690;14.700000
7690;7.300000
7690;7.900000
7690;6.800000
7690;9.100000
7690;14.800000
7690;7.100000
7690;13.000000
7690;13.600000
7690;13.500000
7690;9.300000
7690;7.000000
7690;9.900000
7690;8.700000
7690;5.900000
7690;10.200000
7690;9.000000
7690;14.800000
7690;15.400000
7690;11.400000
7690;12.400000
7690;9.000000
7690;8.700000
7690;9.200000
7690;9.200000
7690;8.300000
7690;15.100000
7690;6.900000
7690;9.200000
7690;7.800000
7690;8.000000
7690;7.700000
7747;12.200000
7747;13.100000
7747;14.200000
7747;9.300000
7747;14.800000
7747;8.700000
7747;7.100000
7747;8.700000
7747;5.000000
7747;17.400000
7747;9.400000
7747;8.800000
7747;11.400000
7747;4.300000
7747;3.500000
7747;12.600000
7747;13.600000
7747;15.100000
7747;9.900000
7747;9.300000
7747;11.700000
7747;6.600000
7747;6.500000
7747;12.100000
7747;2.000000
7747;1.600000
7747;7.900000
7747;11.200000
7747;11.000000
7747;9.400000
7747;4.000000
7747;0.000000
7747;3.600000
7747;7.300000
7747;12.900000
7747;14.400000
7747;4.700000
7747;5.600000
7747;2.600000
7747;8.000000
7747;13.200000
7747;9.800000
7747;6.100000
7747;13.700000
7747;4.200000
7747;10.200000
7747;11.600000
7747;2.400000
7747;10.700000
7747;11.500000
7747;10.400000
7747;2.900000
7747;13.100000
7747;9.400000
7747;12.600000
7747;12.600000
7747;8.100000
7747;11.400000
7747;5.000000
7747;10.000000
7747;4.000000
7747;7.500000
7747;7.900000
7747;11.600000
7747;12.300000
7747;10.500000
7747;6.000000
7747;7.700000
7747;14.600000
7747;12.600000
7747;10.500000
7747;13.200000
7747;12.600000
7747;5.500000
7747;11.200000
7747;12.600000
7747;-1.500000
7747;5.400000
7747;10.200000
7747;13.400000
7747;16.000000
7747;11.100000
7747;12.900000
7747;1.500000
7747;7.700000
7747;13.100000
7747;7.600000
7747;5.700000
7747;12.200000
7747;5.200000
7747;1.000000
7747;8.400000
7747;5.900000
7747;3.700000
7747;10.500000
7747;4.000000
7747;12.000000
7747;12.900000
7747;11.800000
7747;14.700000
7747;4.600000
7747;13.200000
7747;8.000000
7747;7.600000
7747;2.400000
7747;3.700000
7747;6.500000
7747;6.900000
7747;8.500000
7747;14.100000
7747;2.800000
7747;7.300000
7747;12.000000
7747;7.200000
7747;15.400000
7747;11.400000
7747;8.700000
7747;6.800000
7747;7.400000
7747;13.500000
7761;7.300000
7761;4.000000
7761;5.000000
7761;14.600000
7761;13.000000
7761;9.200000
7761;6.500000
7761;13.300000
7761;10.000000
7761;14.200000
7761;5.800000
7761;8.200000
7761;6.200000
7761;5.600000
7761;7.300000
7761;8.100000
7761;14.500000
7761;6.400000
7761;8.300000
7761;8.600000
7761;3.800000
7761;12.900000
7761;4.000000
7761;4.800000
7761;8.300000
7761;13.800000
7761;7.900000
7761;5.900000
7761;15.100000
7761;14.100000
7761;11.800000
7761;5.000000
7761;7.500000
7761;4.600000
7761;8.900000
7761;10.300000
7761;4.000000
7761;14.600000
7761;6.500000
7761;9.400000
7761;4.500000
7761;14.100000
7761;11.000000
7761;10.100000
7761;8.300000
7761;4.100000
7761;14.700000
7761;13.300000
7761;9.900000
7761;14.400000
7761;10.700000
7761;8.900000
7761;7.900000
7761;9.300000
7761;5.600000
7761;12.700000
7761;11.300000
7761;11.400000
7761;8.000000
7761;7.800000
7761;14.300000
7761;6.100000
7761;14.500000
7761;7.800000
7761;14.100000
7761;8.700000
7761;8.400000
7761;14.300000
7761;7.700000
7761;3.900000
7761;15.200000
7761;6.100000
7761;6.700000
7761;8.800000
7761;14.300000
7761;4.200000
7761;5.800000
7761;14.600000
7761;6.800000
7761;5.800000
7761;7.500000
7761;9.600000
7761;8.900000
7761;5.300000
7761;4.500000
7761;15.300000
7761;12.500000
7761;8.500000
7761;9.900000
7761;6.800000
7761;8.700000
7761;5.200000
7761;4.100000
7761;6.600000
7761;4.200000
7761;5.400000
7761;6.300000
7761;6.700000
7761;4.800000
7761;14.500000
7761;8.700000
7761;6.400000
7761;15.300000
7761;14.800000
7761;14.900000
7761;5.900000
7761;10.600000
7761;4.100000
7761;15.000000
7761;8.900000
7761;6.100000
7761;14.300000
7761;6.000000
7761;11.000000
7761;15.000000
7761;4.000000
7761;5.200000
7761;9.400000
7761;15.100000
7761;7.300000
7790;14.000000
7790;6.200000
7790;13.300000
7790;6.900000
7790;8.100000
7790;10.900000
7790;12.600000
7790;8.300000
7790;6.500000
7790;15.200000
7790;7.100000
7790;14.100000
7790;8.200000
7790;8.100000
7790;11.800000
7790;7.100000
7790;9.600000
7790;10.100000
7790;6.400000
7790;14.700000
7790;10.400000
7790;6.000000
7790;6.500000
7790;7.800000
7790;5.400000
7790;7.000000
7790;10.100000
7790;4.800000
7790;6.400000
7790;6.300000
7790;8.200000
7790;13.700000
7790;7.400000
7790;9.200000
7790;5.400000
7790;8.900000
7790;6.900000
7790;13.000000
7790;8.800000
7790;11.700000
7790;13.600000
7790;14.400000
7790;6.400000
7790;6.900000
7790;7.100000
7790;7.100000
7790;5.400000
7790;6.500000
7790;13.400000
7790;7.800000
7790;8.100000
7790;6.700000
7790;15.500000
7790;14.200000
7790;5.800000
7790;13.700000
7790;5.600000
7790;6.500000
7790;8.200000
7790;14.800000
7790;8.800000
7790;15.300000
7790;15.200000
7790;16.000000
7790;6.000000
7790;5.700000
7790;13.500000
7790;10.100000
7790;13.300000
7790;15.200000
7790;10.800000
7790;6.600000
7790;8.400000
7790;8.500000
7790;7.700000
7790;5.100000
7790;13.000000
7790;7.000000
7790;6.300000
7790;14.800000
7790;11.400000
7790;7.100000
7790;15.900000
7790;9.900000
7790;9.900000
7790;13.000000
7790;10.400000
7790;7.000000
7790;6.800000
7790;10.000000
7790;13.500000
7790;4.100000
7790;3.100000
7790;8.400000
7790;9.600000
7790;8.600000
7790;5.800000
7790;5.600000
7790;7.800000
7790;6.300000
7790;6.200000
7790;10.100000
7790;9.600000
7790;16.200001
7790;15.100000
7790;13.900000
7790;10.500000
7790;4.600000
7790;10.800000
7790;7.700000
7790;10.800000
7790;5.800000
7790;8.200000
7790;5.400000
7790;9.200000
7790;5.600000
7790;16.000000
7790;6.800000
7790;9.200000
7790;11.400000
